#(dyn/cm2)	(K)
Pressure	Temp
1.000E+09	5279.725
6.673E+08	4899.542
4.453E+08	4604.752
2.971E+08	4358.8279999999995
1.983E+08	4131.734
1.323E+08	3921.877
8.830E+07	3728.09
5.892E+07	3549.781
3.932E+07	3385.424
2.624E+07	3233.058
1.751E+07	3090.989
1.168E+07	2957.508
7.796E+06	2830.881
5.203E+06	2709.261
3.472E+06	2590.409
2.317E+06	2471.67
1.546E+06	2350.333
1.032E+06	2222.143
6.884E+05	2081.334
4.594E+05	1922.473
3.065E+05	1784.907
2.046E+05	1640.97
1.365E+05	1508.828
9.109E+04	1390.498
6.078E+04	1285.446
4.056E+04	1194.616
2.707E+04	1118.953
1.806E+04	1057.8049999999998
1.205E+04	1009.739
8.043E+03	973.104
5.367E+03	946.109
3.581E+03	926.957
2.390E+03	914.016
1.595E+03	905.908
1.064E+03	901.4069999999999
7.102E+02	899.415
4.739E+02	899.053
3.162E+02	900.069
2.110E+02	901.903
1.408E+02	903.7149999999999
9.397E+01	904.943
6.270E+01	905.058
4.184E+01	903.99
2.792E+01	901.98
1.863E+01	899.136
1.243E+01	895.524
8.297E+00	890.717
5.537E+00	885.886
3.695E+00	881.447
2.465E+00	877.092
1.645E+00	872.972
1.098E+00	869.028
7.326E-01	864.996
4.889E-01	860.502
3.262E-01	855.26
2.177E-01	849.241
1.453E-01	842.677
9.694E-02	835.906
6.469E-02	829.246
4.317E-02	822.924
2.880E-02	817.1859999999999
1.922E-02	811.79
1.283E-02	806.7239999999999
8.559E-03	801.722
5.712E-03	796.646
3.811E-03	791.496
2.543E-03	786.89
1.697E-03	782.915
1.133E-03	779.652
7.558E-04	777.053
5.043E-04	774.914
3.365E-04	773.557
2.246E-04	770.738
1.499E-04	774.288
1.000E-04	798.365
