#(dyn/cm2)	(K)
Pressure	Temp
1.000E+09	4979.725
6.673E+08	4599.542
4.453E+08	4304.752
2.971E+08	4058.828
1.983E+08	3831.734
1.323E+08	3621.877
8.830E+07	3428.09
5.892E+07	3249.781
3.932E+07	3085.424
2.624E+07	2933.058
1.751E+07	2790.989
1.168E+07	2657.508
7.796E+06	2530.881
5.203E+06	2409.261
3.472E+06	2290.409
2.317E+06	2171.67
1.546E+06	2050.333
1.032E+06	1922.143
6.884E+05	1781.334
4.594E+05	1622.473
3.065E+05	1484.907
2.046E+05	1340.97
1.365E+05	1208.828
9.109E+04	1090.498
6.078E+04	985.446
4.056E+04	894.616
2.707E+04	818.953
1.806E+04	757.805
1.205E+04	709.739
8.043E+03	673.104
5.367E+03	646.109
3.581E+03	626.957
2.390E+03	614.016
1.595E+03	605.908
1.064E+03	601.4069999999999
7.102E+02	599.415
4.739E+02	599.053
3.162E+02	600.069
2.110E+02	601.903
1.408E+02	603.7149999999999
9.397E+01	604.943
6.270E+01	605.058
4.184E+01	603.99
2.792E+01	601.98
1.863E+01	599.136
1.243E+01	595.524
8.297E+00	590.717
5.537E+00	585.886
3.695E+00	581.447
2.465E+00	577.092
1.645E+00	572.972
1.098E+00	569.028
7.326E-01	564.996
4.889E-01	560.502
3.262E-01	555.26
2.177E-01	549.241
1.453E-01	542.677
9.694E-02	535.906
6.469E-02	529.246
4.317E-02	522.924
2.880E-02	517.1859999999999
1.922E-02	511.79
1.283E-02	506.724
8.559E-03	501.722
5.712E-03	496.646
3.811E-03	491.496
2.543E-03	486.89
1.697E-03	482.915
1.133E-03	479.652
7.558E-04	477.053
5.043E-04	474.914
3.365E-04	473.557
2.246E-04	470.738
1.499E-04	474.288
1.000E-04	498.365
