#(dyn/cm2)	(K)
Pressure	Temp
1.000E+09	5179.725
6.673E+08	4799.542
4.453E+08	4504.752
2.971E+08	4258.8279999999995
1.983E+08	4031.734
1.323E+08	3821.877
8.830E+07	3628.09
5.892E+07	3449.781
3.932E+07	3285.424
2.624E+07	3133.058
1.751E+07	2990.989
1.168E+07	2857.508
7.796E+06	2730.881
5.203E+06	2609.261
3.472E+06	2490.409
2.317E+06	2371.67
1.546E+06	2250.333
1.032E+06	2122.143
6.884E+05	1981.334
4.594E+05	1822.473
3.065E+05	1684.907
2.046E+05	1540.97
1.365E+05	1408.828
9.109E+04	1290.498
6.078E+04	1185.446
4.056E+04	1094.616
2.707E+04	1018.953
1.806E+04	957.805
1.205E+04	909.739
8.043E+03	873.104
5.367E+03	846.109
3.581E+03	826.957
2.390E+03	814.016
1.595E+03	805.908
1.064E+03	801.4069999999999
7.102E+02	799.415
4.739E+02	799.053
3.162E+02	800.069
2.110E+02	801.903
1.408E+02	803.7149999999999
9.397E+01	804.943
6.270E+01	805.058
4.184E+01	803.99
2.792E+01	801.98
1.863E+01	799.136
1.243E+01	795.524
8.297E+00	790.717
5.537E+00	785.886
3.695E+00	781.447
2.465E+00	777.092
1.645E+00	772.972
1.098E+00	769.028
7.326E-01	764.996
4.889E-01	760.502
3.262E-01	755.26
2.177E-01	749.241
1.453E-01	742.677
9.694E-02	735.906
6.469E-02	729.246
4.317E-02	722.924
2.880E-02	717.1859999999999
1.922E-02	711.79
1.283E-02	706.7239999999999
8.559E-03	701.722
5.712E-03	696.646
3.811E-03	691.496
2.543E-03	686.89
1.697E-03	682.915
1.133E-03	679.652
7.558E-04	677.053
5.043E-04	674.914
3.365E-04	673.557
2.246E-04	670.738
1.499E-04	674.288
1.000E-04	698.365
